12/5/2013	8:46 PM	1&3omega measurement with auto temperature change prgoram Berkeley VersionSensor 6, DI water ice measurement, roughly 2 mm thick.  2 - 22 Hz, 15 points, 30 mA current, 30s sampling period, 10 Hz sampling frequency, temperatures [K]: Introduced current [mArms]: 30.00Temperature [K]	Frequency [Hz]	Ln f [Hz]	1omega in-phase(X) [Vrms]	1omega in-phase(X) sigma[Vrms]	1omega out-phase(Y) [Vrms]	1omega out-phase(Y) sigma[Vrms]	3omega in-phase(X) [Vrms]	3omega in-phase(X) sigma[Vrms]	3omega out-phase(Y) [Vrms]	3omega out-phase(Y) sigma[Vrms]2.57000000E+2	2.20000000E+1	3.09104245E+0	1.62458975E-1	4.14218704E-6	-1.26611017E-4	7.34319947E-6	-1.86723901E-4	2.71480187E-6	5.94032959E-5	2.35230664E-6
2.57000000E+2	1.85369163E+1	2.91976422E+0	1.62465760E-1	4.07640527E-6	-1.17657091E-4	6.51527089E-6	-1.94882719E-4	4.40507988E-7	5.68867083E-5	1.11331639E-6
2.57000000E+2	1.56189666E+1	2.74848599E+0	1.62499620E-1	8.51494392E-6	-1.24530074E-4	1.11964602E-5	-2.02337736E-4	6.97870294E-8	5.66295686E-5	1.60036952E-6
2.57000000E+2	1.31603399E+1	2.57720775E+0	1.62526025E-1	5.92095545E-6	-1.29953066E-4	4.17114613E-6	-2.07081471E-4	3.23365258E-6	6.02086752E-5	2.74531724E-6
2.57000000E+2	1.10887327E+1	2.40592952E+0	1.62559083E-1	3.25982304E-6	-1.13936777E-4	4.89867272E-6	-2.11959570E-4	2.00563656E-6	5.89483041E-5	3.28015267E-6
2.57000000E+2	9.34322316E+0	2.23465128E+0	1.62567901E-1	1.99910000E-5	-1.27115479E-4	6.03610972E-6	-2.23230702E-4	4.31141203E-6	6.13305967E-5	4.08266557E-6
2.57000000E+2	7.87247935E+0	2.06337305E+0	1.62562934E-1	3.12353260E-5	-1.23268960E-4	3.25334888E-5	-2.27804455E-4	3.17099245E-6	6.07643248E-5	3.77707717E-6
2.57000000E+2	6.63324958E+0	1.89209482E+0	1.62592388E-1	9.36693822E-6	-1.14315289E-4	7.30365155E-6	-2.34580926E-4	4.13680006E-6	5.95997959E-5	4.18449805E-6
2.57000000E+2	5.58909056E+0	1.72081658E+0	1.62623455E-1	1.58655812E-5	-1.13495676E-4	1.50531639E-5	-2.40006909E-4	1.00888468E-6	6.06327793E-5	2.26557918E-6
2.57000000E+2	4.70929563E+0	1.54953835E+0	1.62647132E-1	5.50748301E-6	-1.15008769E-4	6.47131220E-6	-2.48407372E-4	5.45564812E-6	6.13475661E-5	5.98179609E-6
2.57000000E+2	3.96799177E+0	1.37826012E+0	1.62654860E-1	3.19766336E-5	-1.16270084E-4	3.01664696E-5	-2.58665595E-4	1.50334824E-5	6.11699893E-5	1.19048800E-5
2.57000000E+2	3.34337870E+0	1.20698188E+0	1.62691736E-1	8.64365721E-6	-1.00948081E-4	6.05247011E-6	-2.68365769E-4	1.40715743E-5	5.71111777E-5	1.82912308E-5
2.57000000E+2	2.81708778E+0	1.03570365E+0	1.62715595E-1	9.66572856E-6	-9.45166860E-5	1.12030104E-5	-2.65719421E-4	1.06395515E-6	6.12185124E-5	3.91893892E-6
2.57000000E+2	2.37364183E+0	8.64425414E-1	1.62738620E-1	4.32714795E-5	-9.67236372E-5	4.30485234E-5	-2.75673636E-4	1.98565732E-7	5.80426174E-5	1.89050295E-6
2.57000000E+2	2.00000000E+0	6.93147181E-1	1.62658347E-1	2.00065451E-5	-1.99878632E-5	1.78995486E-5	-3.30066364E-4	2.76862341E-6	5.58306165E-5	5.12972704E-6
