12/6/2013	4:02 AM	1&3omega measurement with auto temperature change prgoram Berkeley VersionSensor 6, DI water ice measurement, roughly 2 mm thick.  2 - 22 Hz, 15 points, 30 mA current, 45s sampling period, 4 Hz sampling frequency, temperatures [K]: 264, 262, 260, 258, 256, 254Introduced current [mArms]: 30.00Temperature [K]	Frequency [Hz]	Ln f [Hz]	1omega in-phase(X) [Vrms]	1omega in-phase(X) sigma[Vrms]	1omega out-phase(Y) [Vrms]	1omega out-phase(Y) sigma[Vrms]	3omega in-phase(X) [Vrms]	3omega in-phase(X) sigma[Vrms]	3omega out-phase(Y) [Vrms]	3omega out-phase(Y) sigma[Vrms]2.56000000E+2	2.20000000E+1	3.09104245E+0	1.62215569E-1	1.00819935E-5	-1.40322680E-4	7.94381685E-6	-1.90180033E-4	1.30373242E-6	6.04025249E-5	2.60089611E-6
2.56000000E+2	1.85369163E+1	2.91976422E+0	1.62200812E-1	7.67738861E-6	-1.33915873E-4	4.78309291E-6	-1.97522912E-4	2.02982681E-6	6.16693945E-5	1.26461519E-6
2.56000000E+2	1.56189666E+1	2.74848599E+0	1.62111945E-1	2.10925800E-5	-1.33620547E-4	1.16710278E-5	-2.02327420E-4	2.43224223E-7	5.97748597E-5	2.11824956E-6
2.56000000E+2	1.31603399E+1	2.57720775E+0	1.62103608E-1	5.72283398E-6	-1.36023354E-4	5.26384186E-6	-2.12311702E-4	1.31075414E-6	5.88470221E-5	2.83639872E-6
2.56000000E+2	1.10887327E+1	2.40592952E+0	1.62120387E-1	8.84776437E-6	-1.17518320E-4	4.67434541E-6	-2.20618646E-4	6.04862011E-7	6.03202398E-5	4.09983665E-6
2.56000000E+2	9.34322316E+0	2.23465128E+0	1.62155547E-1	7.36917409E-6	-1.28351796E-4	6.78470232E-6	-2.23816028E-4	3.75409497E-6	5.95708663E-5	4.81804669E-6
2.56000000E+2	7.87247935E+0	2.06337305E+0	1.62165210E-1	3.31313901E-5	-1.30290515E-4	3.23635510E-5	-2.32425762E-4	1.75804761E-6	6.08649221E-5	4.17928881E-6
2.56000000E+2	6.63324958E+0	1.89209482E+0	1.62152785E-1	8.59734994E-6	-1.18277271E-4	8.68516668E-6	-2.39424315E-4	3.63662900E-6	6.02018630E-5	4.50767920E-6
2.56000000E+2	5.58909056E+0	1.72081658E+0	1.62166227E-1	1.73227071E-5	-1.13724892E-4	1.54840686E-5	-2.44294939E-4	1.52488792E-6	6.34309564E-5	3.36195226E-6
2.56000000E+2	4.70929563E+0	1.54953835E+0	1.62186171E-1	6.73039978E-6	-1.15368646E-4	6.26385959E-6	-2.51381276E-4	5.70217265E-6	6.11835298E-5	5.87394211E-6
2.56000000E+2	3.96799177E+0	1.37826012E+0	1.62188939E-1	3.18866335E-5	-1.11533046E-4	2.47398267E-5	-2.59190530E-4	1.27626053E-5	6.11349597E-5	1.35012567E-5
2.56000000E+2	3.34337870E+0	1.20698188E+0	1.62194972E-1	7.49402053E-6	-1.00447141E-4	6.60793018E-6	-2.60940912E-4	1.69667183E-5	5.84150293E-5	1.66359390E-5
2.56000000E+2	2.81708778E+0	1.03570365E+0	1.62241978E-1	9.59742778E-6	-9.72436298E-5	9.03275500E-6	-2.73064077E-4	1.80508521E-6	6.29198470E-5	2.39799091E-6
2.56000000E+2	2.37364183E+0	8.64425414E-1	1.62273508E-1	4.43787510E-5	-9.45459895E-5	4.41334576E-5	-2.77032127E-4	1.75551136E-6	5.95587055E-5	2.84817607E-6
2.56000000E+2	2.00000000E+0	6.93147181E-1	1.62369834E-1	2.12922818E-5	-2.21717227E-4	2.52423444E-5	-2.67961652E-4	7.38081829E-6	1.80912480E-5	7.24343619E-6
