12/6/2013	3:16 AM	1&3omega measurement with auto temperature change prgoram Berkeley VersionSensor 6, DI water ice measurement, roughly 2 mm thick.  2 - 22 Hz, 15 points, 30 mA current, 45s sampling period, 4 Hz sampling frequency, temperatures [K]: 264, 262, 260, 258, 256, 254Introduced current [mArms]: 30.00Temperature [K]	Frequency [Hz]	Ln f [Hz]	1omega in-phase(X) [Vrms]	1omega in-phase(X) sigma[Vrms]	1omega out-phase(Y) [Vrms]	1omega out-phase(Y) sigma[Vrms]	3omega in-phase(X) [Vrms]	3omega in-phase(X) sigma[Vrms]	3omega out-phase(Y) [Vrms]	3omega out-phase(Y) sigma[Vrms]2.58000000E+2	2.20000000E+1	3.09104245E+0	1.63110580E-1	5.15541161E-6	-1.40111950E-4	9.54830929E-6	-1.93403740E-4	3.10919576E-6	6.13842912E-5	2.24436160E-6
2.58000000E+2	1.85369163E+1	2.91976422E+0	1.63098652E-1	4.35448161E-6	-1.29953624E-4	6.01290386E-6	-2.01011796E-4	1.10530316E-6	6.20021006E-5	1.07367255E-6
2.58000000E+2	1.56189666E+1	2.74848599E+0	1.63239796E-1	9.41200075E-6	-1.38636713E-4	1.14820631E-5	-2.04962768E-4	2.89945511E-6	6.29466851E-5	2.80563134E-6
2.58000000E+2	1.31603399E+1	2.57720775E+0	1.63303796E-1	1.13684350E-5	-1.42135077E-4	4.96385408E-6	-2.13296000E-4	5.43604837E-20	6.12202470E-5	2.94525437E-6
2.58000000E+2	1.10887327E+1	2.40592952E+0	1.63367762E-1	7.87428463E-6	-1.21480829E-4	4.58211632E-6	-2.21116276E-4	2.00941675E-7	6.29855436E-5	3.54986209E-6
2.58000000E+2	9.34322316E+0	2.23465128E+0	1.63400608E-1	8.71752678E-6	-1.33283558E-4	6.70633919E-6	-2.27042768E-4	3.42964349E-6	6.00798227E-5	5.06516168E-6
2.58000000E+2	7.87247935E+0	2.06337305E+0	1.63345177E-1	3.59411821E-5	-1.35011465E-4	3.25397703E-5	-2.33584541E-4	2.56760446E-6	6.10264464E-5	3.67481338E-6
2.58000000E+2	6.63324958E+0	1.89209482E+0	1.63345083E-1	1.08974403E-5	-1.19583994E-4	8.58254121E-6	-2.40692939E-4	3.68778028E-6	5.97078773E-5	4.14085651E-6
2.58000000E+2	5.58909056E+0	1.72081658E+0	1.63451796E-1	1.63570298E-5	-1.16591191E-4	1.43933648E-5	-2.48346376E-4	2.76884818E-6	6.55351127E-5	8.06696093E-7
2.58000000E+2	4.70929563E+0	1.54953835E+0	1.63469956E-1	2.59926962E-5	-1.14989298E-4	6.53522082E-6	-2.54644287E-4	5.55269661E-6	6.32214718E-5	5.71840583E-6
2.58000000E+2	3.96799177E+0	1.37826012E+0	1.63494066E-1	2.98298140E-5	-1.11828154E-4	2.34105497E-5	-2.63825110E-4	1.36151495E-5	6.08395757E-5	1.29133760E-5
2.58000000E+2	3.34337870E+0	1.20698188E+0	1.63432271E-1	1.24707958E-5	-1.01037256E-4	6.75974932E-6	-2.64675503E-4	1.81707414E-5	6.25477006E-5	1.69635733E-5
2.58000000E+2	2.81708778E+0	1.03570365E+0	1.63448171E-1	1.40173881E-5	-9.76651459E-5	8.93431584E-6	-2.75566265E-4	2.22866443E-7	6.34263420E-5	2.84924618E-6
2.58000000E+2	2.37364183E+0	8.64425414E-1	1.63474746E-1	4.93801754E-5	-9.43352141E-5	4.31508520E-5	-2.83193204E-4	2.31787455E-6	6.22230204E-5	3.86048168E-6
2.58000000E+2	2.00000000E+0	6.93147181E-1	1.63351823E-1	2.10842678E-5	-5.47549188E-5	2.18647071E-5	-2.94355956E-4	8.38747220E-6	1.73035597E-5	3.31107120E-6
