12/5/2013	9:23 PM	1&3omega measurement with auto temperature change prgoram Berkeley VersionSensor 6, DI water ice measurement, roughly 2 mm thick.  2 - 22 Hz, 15 points, 30 mA current, 30s sampling period, 10 Hz sampling frequency, temperatures [K]: Introduced current [mArms]: 30.00Temperature [K]	Frequency [Hz]	Ln f [Hz]	1omega in-phase(X) [Vrms]	1omega in-phase(X) sigma[Vrms]	1omega out-phase(Y) [Vrms]	1omega out-phase(Y) sigma[Vrms]	3omega in-phase(X) [Vrms]	3omega in-phase(X) sigma[Vrms]	3omega out-phase(Y) [Vrms]	3omega out-phase(Y) sigma[Vrms]2.55000000E+2	2.20000000E+1	3.09104245E+0	1.61424554E-1	1.65876211E-5	-1.39599785E-4	3.89560228E-6	-1.85803438E-4	2.50040879E-6	6.08303017E-5	2.80533389E-6
2.55000000E+2	1.85369163E+1	2.91976422E+0	1.61448620E-1	4.21753522E-6	-1.16332926E-4	6.25142047E-6	-1.94096992E-4	9.63792340E-7	5.85457215E-5	1.45362669E-6
2.55000000E+2	1.56189666E+1	2.74848599E+0	1.61349033E-1	1.09483133E-5	-1.24719240E-4	1.08217816E-5	-2.01742017E-4	8.20522943E-7	5.69652785E-5	1.24635861E-6
2.55000000E+2	1.31603399E+1	2.57720775E+0	1.61352289E-1	5.32202658E-6	-1.30079074E-4	5.55883852E-6	-2.03971570E-4	1.95319288E-6	5.94433496E-5	1.94678816E-6
2.55000000E+2	1.10887327E+1	2.40592952E+0	1.61350950E-1	5.41733520E-6	-1.13432289E-4	4.05410747E-6	-2.11279860E-4	1.69611560E-6	5.91909198E-5	3.44183345E-6
2.55000000E+2	9.34322316E+0	2.23465128E+0	1.61389215E-1	1.08744399E-5	-1.27872132E-4	6.60928114E-6	-2.21048975E-4	4.06528600E-6	6.04739248E-5	4.81946385E-6
2.55000000E+2	7.87247935E+0	2.06337305E+0	1.61412107E-1	3.68636681E-5	-1.24467010E-4	3.08188209E-5	-2.23784380E-4	3.05039481E-6	6.03874802E-5	4.38063395E-6
2.55000000E+2	6.63324958E+0	1.89209482E+0	1.61435512E-1	8.96578283E-6	-1.16080807E-4	7.76862719E-6	-2.30595264E-4	4.77836323E-6	5.97271355E-5	3.90445167E-6
2.55000000E+2	5.58909056E+0	1.72081658E+0	1.61433397E-1	1.70330460E-5	-1.14252327E-4	1.59874071E-5	-2.38919248E-4	1.60865961E-6	6.07909364E-5	2.40172389E-6
2.55000000E+2	4.70929563E+0	1.54953835E+0	1.61450777E-1	1.01951685E-5	-1.13810793E-4	6.50278411E-6	-2.46758364E-4	6.05535419E-6	5.91126248E-5	5.52386495E-6
2.55000000E+2	3.96799177E+0	1.37826012E+0	1.61449107E-1	4.08043710E-5	-9.64712860E-5	1.43024298E-5	-2.54877388E-4	1.37410680E-5	5.74005793E-5	1.30792215E-5
2.55000000E+2	3.34337870E+0	1.20698188E+0	1.61446281E-1	6.91402336E-6	-9.90564909E-5	6.45750822E-6	-2.60442917E-4	1.76574603E-5	5.26583000E-5	1.38826300E-5
2.55000000E+2	2.81708778E+0	1.03570365E+0	1.61452570E-1	7.34713827E-6	-9.53994264E-5	9.55575203E-6	-2.64345752E-4	4.60690990E-7	5.61655603E-5	8.05959198E-7
2.55000000E+2	2.37364183E+0	8.64425414E-1	1.61461860E-1	4.51693675E-5	-9.33817769E-5	4.35727497E-5	-2.74031041E-4	1.60136947E-6	6.21872653E-5	1.59153827E-6
2.55000000E+2	2.00000000E+0	6.93147181E-1	1.61595884E-1	1.50649649E-5	-1.34303302E-5	2.07548927E-5	-3.15507504E-4	2.17809373E-6	2.67581967E-5	4.99369647E-6
